File: data/FTIR_ATR_DICY Powder_02.dpt
4497.74,0.01858
4484.24,0.01846
4470.74,0.01830
4457.24,0.01818
4443.74,0.01796
4430.24,0.01793
4416.73,0.01783
4403.23,0.01777
4389.73,0.01758
4376.23,0.01748
4362.73,0.01752
4349.23,0.01741
4335.73,0.01734
4322.23,0.01720
4308.73,0.01723
4295.23,0.01718
4281.72,0.01703
4268.22,0.01695
4254.72,0.01683
4241.22,0.01679
4227.72,0.01673
4214.22,0.01663
4200.72,0.01659
4187.22,0.01648
4173.72,0.01638
4160.22,0.01632
4146.72,0.01634
4133.21,0.01623
4119.71,0.01620
4106.21,0.01611
4092.71,0.01610
4079.21,0.01601
4065.71,0.01587
4052.21,0.01578
4038.71,0.01575
4025.21,0.01566
4011.71,0.01557
3998.21,0.01549
3984.7,0.01530
3971.2,0.01526
3957.7,0.01522
3944.2,0.01499
3930.7,0.01476
3917.2,0.01432
3903.7,0.01301
3890.2,0.01377
3876.7,0.01411
3863.2,0.01324
3849.7,0.01286
3836.19,0.01160
3822.69,0.01215
3809.19,0.01302
3795.69,0.01320
3782.19,0.01333
3768.69,0.01263
3755.19,0.01190
3741.69,0.01117
3728.19,0.01249
3714.69,0.01186
3701.18,0.01219
3687.68,0.01009
3674.18,0.00892
3660.68,0.01151
3647.18,0.00895
3633.68,0.01035
3620.18,0.00922
3606.68,0.00933
3593.18,0.00922
3579.68,0.00906
3566.18,0.00759
3552.67,0.00809
3539.17,0.00798
3525.67,0.00768
3512.17,0.00823
3498.67,0.00920
3485.17,0.01127
3471.67,0.01583
3458.17,0.02454
3444.67,0.04576
3431.17,0.07867
3417.67,0.08856
3404.16,0.08268
3390.66,0.09026
3377.16,0.10856
3363.66,0.10956
3350.16,0.10633
3336.66,0.12466
3323.16,0.12646
3309.66,0.11065
3296.16,0.09909
3282.66,0.08857
3269.15,0.07887
3255.65,0.07827
3242.15,0.08465
3228.65,0.08363
3215.15,0.08881
3201.65,0.10171
3188.15,0.11648
3174.65,0.12013
3161.15,0.12679
3147.65,0.14058
3134.15,0.13689
3120.64,0.11882
3107.14,0.10044
3093.64,0.08763
3080.14,0.08023
3066.64,0.07082
3053.14,0.06403
3039.64,0.05934
3026.14,0.05579
3012.64,0.05240
2999.14,0.04908
2985.64,0.04609
2972.13,0.04307
2958.63,0.04040
2945.13,0.03941
2931.63,0.03931
2918.13,0.03933
2904.63,0.03962
2891.13,0.03623
2877.63,0.03329
2864.13,0.03149
2850.63,0.02976
2837.12,0.03015
2823.62,0.02987
2810.12,0.02939
2796.62,0.02952
2783.12,0.03076
2769.62,0.03321
2756.12,0.03501
2742.62,0.03504
2729.12,0.03379
2715.62,0.03170
2702.12,0.02964
2688.61,0.02773
2675.11,0.02650
2661.61,0.02623
2648.11,0.02588
2634.61,0.02513
2621.11,0.02481
2607.61,0.02532
2594.11,0.02558
2580.61,0.02494
2567.11,0.02411
2553.61,0.02277
2540.1,0.02208
2526.6,0.02238
2513.1,0.02345
2499.6,0.02356
2486.1,0.02479
2472.6,0.02597
2459.1,0.02514
2445.6,0.02301
2432.1,0.02085
2418.6,0.01926
2405.1,0.01831
2391.59,0.01815
2378.09,0.02062
2364.59,0.02778
2351.09,0.02226
2337.59,0.02164
2324.09,0.02015
2310.59,0.01653
2297.09,0.01547
2283.59,0.01611
2270.09,0.01683
2256.58,0.01655
2243.08,0.01740
2229.58,0.02515
2216.08,0.08297
2202.58,0.14232
2189.08,0.10503
2175.58,0.10759
2162.08,0.19159
2148.58,0.17282
2135.08,0.12861
2121.58,0.09985
2108.07,0.08896
2094.57,0.07256
2081.07,0.06430
2067.57,0.05877
2054.07,0.05556
2040.57,0.05621
2027.07,0.05424
2013.57,0.04895
2000.07,0.04379
1986.57,0.04154
1973.07,0.03863
1959.56,0.03500
1946.06,0.03164
1932.56,0.02881
1919.06,0.02608
1905.56,0.02439
1892.06,0.02251
1878.56,0.02147
1865.06,0.02235
1851.56,0.01968
1838.06,0.01747
1824.55,0.01540
1811.05,0.01406
1797.55,0.01329
1784.05,0.01420
1770.55,0.01501
1757.05,0.01517
1743.55,0.01203
1730.05,0.01030
1716.55,0.00759
1703.05,0.00909
1689.55,0.01511
1676.04,0.04316
1662.54,0.09864
1649.04,0.13174
1635.54,0.21288
1622.04,0.21160
1608.54,0.14943
1595.04,0.13519
1581.54,0.16255
1568.04,0.19087
1554.54,0.19666
1541.04,0.16333
1527.53,0.14093
1514.03,0.17963
1500.53,0.22618
1487.03,0.16758
1473.53,0.14378
1460.03,0.12901
1446.53,0.12177
1433.03,0.11101
1419.53,0.09705
1406.03,0.08918
1392.52,0.08306
1379.02,0.07984
1365.52,0.07736
1352.02,0.07583
1338.52,0.07730
1325.02,0.07477
1311.52,0.07042
1298.02,0.06686
1284.52,0.06404
1271.02,0.06706
1257.52,0.14244
1244.01,0.14600
1230.51,0.11658
1217.01,0.10537
1203.51,0.10099
1190.01,0.09980
1176.51,0.09864
1163.01,0.09639
1149.51,0.09609
1136.01,0.09716
1122.51,0.09947
1109.01,0.10714
1095.5,0.12605
1082,0.12625
1068.5,0.12372
1055,0.12091
1041.5,0.11705
1028,0.11324
1014.5,0.10938
1001,0.10543
987.497,0.10045
973.996,0.09662
960.495,0.09300
946.994,0.08936
933.493,0.15123
919.992,0.14091
906.491,0.10344
892.99,0.09228
879.489,0.08435
865.989,0.07725
852.488,0.07117
838.987,0.06636
825.486,0.06236
811.985,0.05923
798.484,0.05701
784.983,0.05558
771.482,0.05690
757.981,0.06432
744.48,0.06676
730.979,0.06392
717.478,0.09619
703.977,0.06859
690.476,0.06795
676.975,0.08769
663.474,0.13903
649.974,0.08651
636.473,0.08979
622.972,0.10257
609.471,0.12368
599.827,0.13970