File: data/FTIR_ATR_DICY Powder_01.dpt
4497.74,0.02178
4484.24,0.02174
4470.74,0.02150
4457.24,0.02137
4443.74,0.02123
4430.24,0.02110
4416.73,0.02109
4403.23,0.02099
4389.73,0.02075
4376.23,0.02071
4362.73,0.02069
4349.23,0.02059
4335.73,0.02053
4322.23,0.02037
4308.73,0.02040
4295.23,0.02032
4281.72,0.02016
4268.22,0.02009
4254.72,0.01998
4241.22,0.01994
4227.72,0.01989
4214.22,0.01975
4200.72,0.01968
4187.22,0.01959
4173.72,0.01951
4160.22,0.01939
4146.72,0.01938
4133.21,0.01924
4119.71,0.01925
4106.21,0.01916
4092.71,0.01909
4079.21,0.01900
4065.71,0.01887
4052.21,0.01875
4038.71,0.01867
4025.21,0.01854
4011.71,0.01843
3998.21,0.01836
3984.7,0.01822
3971.2,0.01812
3957.7,0.01807
3944.2,0.01784
3930.7,0.01753
3917.2,0.01717
3903.7,0.01582
3890.2,0.01652
3876.7,0.01689
3863.2,0.01596
3849.7,0.01552
3836.19,0.01428
3822.69,0.01482
3809.19,0.01563
3795.69,0.01577
3782.19,0.01589
3768.69,0.01512
3755.19,0.01437
3741.69,0.01361
3728.19,0.01484
3714.69,0.01422
3701.18,0.01442
3687.68,0.01226
3674.18,0.01096
3660.68,0.01358
3647.18,0.01091
3633.68,0.01220
3620.18,0.01099
3606.68,0.01092
3593.18,0.01070
3579.68,0.01041
3566.18,0.00882
3552.67,0.00919
3539.17,0.00890
3525.67,0.00847
3512.17,0.00893
3498.67,0.00975
3485.17,0.01168
3471.67,0.01612
3458.17,0.02455
3444.67,0.04498
3431.17,0.07722
3417.67,0.08838
3404.16,0.08349
3390.66,0.09052
3377.16,0.10806
3363.66,0.10893
3350.16,0.10574
3336.66,0.12426
3323.16,0.12676
3309.66,0.11194
3296.16,0.10083
3282.66,0.09067
3269.15,0.08123
3255.65,0.08038
3242.15,0.08659
3228.65,0.08575
3215.15,0.09073
3201.65,0.10318
3188.15,0.11747
3174.65,0.12128
3161.15,0.12756
3147.65,0.14099
3134.15,0.13794
3120.64,0.12114
3107.14,0.10378
3093.64,0.09156
3080.14,0.08465
3066.64,0.07562
3053.14,0.06894
3039.64,0.06429
3026.14,0.06075
3012.64,0.05736
2999.14,0.05405
2985.64,0.05102
2972.13,0.04798
2958.63,0.04527
2945.13,0.04414
2931.63,0.04396
2918.13,0.04390
2904.63,0.04419
2891.13,0.04091
2877.63,0.03796
2864.13,0.03612
2850.63,0.03437
2837.12,0.03464
2823.62,0.03424
2810.12,0.03366
2796.62,0.03365
2783.12,0.03474
2769.62,0.03697
2756.12,0.03875
2742.62,0.03882
2729.12,0.03761
2715.62,0.03563
2702.12,0.03366
2688.61,0.03171
2675.11,0.03044
2661.61,0.03015
2648.11,0.02984
2634.61,0.02906
2621.11,0.02861
2607.61,0.02915
2594.11,0.02936
2580.61,0.02870
2567.11,0.02775
2553.61,0.02634
2540.1,0.02553
2526.6,0.02571
2513.1,0.02668
2499.6,0.02674
2486.1,0.02789
2472.6,0.02910
2459.1,0.02830
2445.6,0.02604
2432.1,0.02373
2418.6,0.02192
2405.1,0.02077
2391.59,0.02039
2378.09,0.02251
2364.59,0.02860
2351.09,0.02387
2337.59,0.02246
2324.09,0.02097
2310.59,0.01761
2297.09,0.01641
2283.59,0.01678
2270.09,0.01721
2256.58,0.01676
2243.08,0.01723
2229.58,0.02425
2216.08,0.07965
2202.58,0.13690
2189.08,0.10322
2175.58,0.10352
2162.08,0.18202
2148.58,0.16781
2135.08,0.13224
2121.58,0.10633
2108.07,0.09669
2094.57,0.08078
2081.07,0.07202
2067.57,0.06613
2054.07,0.06232
2040.57,0.06243
2027.07,0.06017
2013.57,0.05483
2000.07,0.04969
1986.57,0.04725
1973.07,0.04402
1959.56,0.03975
1946.06,0.03650
1932.56,0.03334
1919.06,0.03042
1905.56,0.02841
1892.06,0.02617
1878.56,0.02471
1865.06,0.02551
1851.56,0.02255
1838.06,0.01998
1824.55,0.01758
1811.05,0.01579
1797.55,0.01472
1784.05,0.01537
1770.55,0.01616
1757.05,0.01609
1743.55,0.01261
1730.05,0.01062
1716.55,0.00774
1703.05,0.00908
1689.55,0.01477
1676.04,0.04187
1662.54,0.09425
1649.04,0.12970
1635.54,0.20427
1622.04,0.20555
1608.54,0.15061
1595.04,0.13651
1581.54,0.15852
1568.04,0.18002
1554.54,0.18613
1541.04,0.15923
1527.53,0.14153
1514.03,0.17969
1500.53,0.22613
1487.03,0.17017
1473.53,0.14794
1460.03,0.13425
1446.53,0.12741
1433.03,0.11799
1419.53,0.10479
1406.03,0.09699
1392.52,0.09061
1379.02,0.08698
1365.52,0.08412
1352.02,0.08217
1338.52,0.08317
1325.02,0.08069
1311.52,0.07596
1298.02,0.07180
1284.52,0.06797
1271.02,0.06888
1257.52,0.13906
1244.01,0.14940
1230.51,0.12257
1217.01,0.11152
1203.51,0.10698
1190.01,0.10559
1176.51,0.10431
1163.01,0.10199
1149.51,0.10137
1136.01,0.10210
1122.51,0.10382
1109.01,0.11028
1095.5,0.12850
1082,0.12995
1068.5,0.12814
1055,0.12567
1041.5,0.12216
1028,0.11849
1014.5,0.11485
1001,0.11112
987.497,0.10636
973.996,0.10273
960.495,0.09920
946.994,0.09567
933.493,0.15367
919.992,0.14618
906.491,0.11061
892.99,0.09986
879.489,0.09219
865.989,0.08530
852.488,0.07929
838.987,0.07429
825.486,0.07015
811.985,0.06678
798.484,0.06419
784.983,0.06229
771.482,0.06291
757.981,0.06999
744.48,0.07303
730.979,0.06946
717.478,0.10085
703.977,0.07410
690.476,0.07301
676.975,0.09140
663.474,0.14084
649.974,0.09043
636.473,0.09231
622.972,0.10320
609.471,0.12273
599.827,0.13688