File: data/FTIR_ATR_After TGA 30-300C 10K-min_02.dpt
4497.74,0.02212
4484.24,0.02209
4470.74,0.02198
4457.24,0.02182
4443.74,0.02179
4430.24,0.02162
4416.73,0.02151
4403.23,0.02141
4389.73,0.02133
4376.23,0.02124
4362.73,0.02116
4349.23,0.02103
4335.73,0.02098
4322.23,0.02085
4308.73,0.02078
4295.23,0.02071
4281.72,0.02058
4268.22,0.02054
4254.72,0.02042
4241.22,0.02039
4227.72,0.02032
4214.22,0.02028
4200.72,0.02026
4187.22,0.02024
4173.72,0.02017
4160.22,0.01999
4146.72,0.02001
4133.21,0.01989
4119.71,0.01982
4106.21,0.01971
4092.71,0.01965
4079.21,0.01964
4065.71,0.01952
4052.21,0.01946
4038.71,0.01938
4025.21,0.01923
4011.71,0.01906
3998.21,0.01899
3984.7,0.01890
3971.2,0.01874
3957.7,0.01868
3944.2,0.01861
3930.7,0.01851
3917.2,0.01852
3903.7,0.01868
3890.2,0.01867
3876.7,0.01848
3863.2,0.01836
3849.7,0.01828
3836.19,0.01809
3822.69,0.01777
3809.19,0.01748
3795.69,0.01727
3782.19,0.01709
3768.69,0.01697
3755.19,0.01690
3741.69,0.01675
3728.19,0.01648
3714.69,0.01621
3701.18,0.01588
3687.68,0.01588
3674.18,0.01576
3660.68,0.01507
3647.18,0.01518
3633.68,0.01484
3620.18,0.01490
3606.68,0.01473
3593.18,0.01441
3579.68,0.01412
3566.18,0.01406
3552.67,0.01374
3539.17,0.01362
3525.67,0.01430
3512.17,0.01599
3498.67,0.01902
3485.17,0.02493
3471.67,0.05486
3458.17,0.04378
3444.67,0.03344
3431.17,0.03602
3417.67,0.05579
3404.16,0.04558
3390.66,0.04186
3377.16,0.04575
3363.66,0.05411
3350.16,0.06606
3336.66,0.07764
3323.16,0.08211
3309.66,0.07921
3296.16,0.07427
3282.66,0.07022
3269.15,0.06748
3255.65,0.06650
3242.15,0.06776
3228.65,0.07185
3215.15,0.07840
3201.65,0.08545
3188.15,0.09090
3174.65,0.09453
3161.15,0.09985
3147.65,0.10923
3134.15,0.11885
3120.64,0.12132
3107.14,0.11726
3093.64,0.11175
3080.14,0.10577
3066.64,0.09972
3053.14,0.09396
3039.64,0.08857
3026.14,0.08362
3012.64,0.07912
2999.14,0.07512
2985.64,0.07189
2972.13,0.06914
2958.63,0.06581
2945.13,0.06247
2931.63,0.05882
2918.13,0.05537
2904.63,0.05340
2891.13,0.05151
2877.63,0.05035
2864.13,0.04980
2850.63,0.04931
2837.12,0.04987
2823.62,0.04947
2810.12,0.04818
2796.62,0.04630
2783.12,0.04452
2769.62,0.04319
2756.12,0.04199
2742.62,0.04101
2729.12,0.03956
2715.62,0.03891
2702.12,0.03877
2688.61,0.03869
2675.11,0.03804
2661.61,0.03696
2648.11,0.03623
2634.61,0.03558
2621.11,0.03497
2607.61,0.03439
2594.11,0.03383
2580.61,0.03346
2567.11,0.03317
2553.61,0.03265
2540.1,0.03200
2526.6,0.03141
2513.1,0.03092
2499.6,0.03058
2486.1,0.02992
2472.6,0.02932
2459.1,0.02856
2445.6,0.02782
2432.1,0.02709
2418.6,0.02630
2405.1,0.02547
2391.59,0.02489
2378.09,0.02505
2364.59,0.02790
2351.09,0.02555
2337.59,0.02725
2324.09,0.02759
2310.59,0.02560
2297.09,0.02526
2283.59,0.02620
2270.09,0.02648
2256.58,0.02725
2243.08,0.02814
2229.58,0.02928
2216.08,0.03010
2202.58,0.03108
2189.08,0.03201
2175.58,0.03127
2162.08,0.03300
2148.58,0.02742
2135.08,0.02450
2121.58,0.02306
2108.07,0.02267
2094.57,0.02111
2081.07,0.02121
2067.57,0.02134
2054.07,0.02173
2040.57,0.02268
2027.07,0.02203
2013.57,0.02084
2000.07,0.01867
1986.57,0.01861
1973.07,0.01759
1959.56,0.01543
1946.06,0.01405
1932.56,0.01262
1919.06,0.01184
1905.56,0.01095
1892.06,0.01025
1878.56,0.00963
1865.06,0.00912
1851.56,0.00860
1838.06,0.00805
1824.55,0.00769
1811.05,0.00706
1797.55,0.00702
1784.05,0.00732
1770.55,0.00806
1757.05,0.00791
1743.55,0.00803
1730.05,0.00921
1716.55,0.01244
1703.05,0.01752
1689.55,0.02641
1676.04,0.04850
1662.54,0.08643
1649.04,0.12364
1635.54,0.13452
1622.04,0.14911
1608.54,0.13310
1595.04,0.12817
1581.54,0.15572
1568.04,0.16964
1554.54,0.19572
1541.04,0.21831
1527.53,0.21846
1514.03,0.19204
1500.53,0.15758
1487.03,0.13586
1473.53,0.15837
1460.03,0.17881
1446.53,0.19547
1433.03,0.24456
1419.53,0.23199
1406.03,0.21094
1392.52,0.19053
1379.02,0.17376
1365.52,0.17858
1352.02,0.18483
1338.52,0.18468
1325.02,0.18449
1311.52,0.18027
1298.02,0.16972
1284.52,0.15584
1271.02,0.15036
1257.52,0.14766
1244.01,0.14100
1230.51,0.13363
1217.01,0.12702
1203.51,0.12834
1190.01,0.13261
1176.51,0.13164
1163.01,0.12377
1149.51,0.11525
1136.01,0.11000
1122.51,0.10673
1109.01,0.11074
1095.5,0.10620
1082,0.10181
1068.5,0.09768
1055,0.09508
1041.5,0.10582
1028,0.13531
1014.5,0.13270
1001,0.11616
987.497,0.10545
973.996,0.09783
960.495,0.09131
946.994,0.08653
933.493,0.08224
919.992,0.07946
906.491,0.07790
892.99,0.07735
879.489,0.07793
865.989,0.07769
852.488,0.07681
838.987,0.07888
825.486,0.09778
811.985,0.20836
798.484,0.16940
784.983,0.13631
771.482,0.13677
757.981,0.13285
744.48,0.12070
730.979,0.13500
717.478,0.13378
703.977,0.13457
690.476,0.13683
676.975,0.14365
663.474,0.14715
649.974,0.15206
636.473,0.16315
622.972,0.17861
609.471,0.19375
599.827,0.18211