File: data/FTIR_ATR_After TGA 30-300°C 10K-min_01.dpt
4497.74,0.02183
4484.24,0.02186
4470.74,0.02175
4457.24,0.02163
4443.74,0.02155
4430.24,0.02140
4416.73,0.02137
4403.23,0.02124
4389.73,0.02116
4376.23,0.02110
4362.73,0.02105
4349.23,0.02093
4335.73,0.02088
4322.23,0.02071
4308.73,0.02067
4295.23,0.02057
4281.72,0.02057
4268.22,0.02044
4254.72,0.02041
4241.22,0.02037
4227.72,0.02026
4214.22,0.02025
4200.72,0.02022
4187.22,0.02021
4173.72,0.02010
4160.22,0.01997
4146.72,0.01997
4133.21,0.01987
4119.71,0.01982
4106.21,0.01976
4092.71,0.01968
4079.21,0.01962
4065.71,0.01954
4052.21,0.01949
4038.71,0.01940
4025.21,0.01926
4011.71,0.01911
3998.21,0.01905
3984.7,0.01895
3971.2,0.01882
3957.7,0.01878
3944.2,0.01869
3930.7,0.01858
3917.2,0.01854
3903.7,0.01874
3890.2,0.01877
3876.7,0.01856
3863.2,0.01841
3849.7,0.01832
3836.19,0.01819
3822.69,0.01793
3809.19,0.01769
3795.69,0.01749
3782.19,0.01731
3768.69,0.01719
3755.19,0.01713
3741.69,0.01703
3728.19,0.01678
3714.69,0.01648
3701.18,0.01621
3687.68,0.01617
3674.18,0.01606
3660.68,0.01546
3647.18,0.01547
3633.68,0.01515
3620.18,0.01520
3606.68,0.01495
3593.18,0.01463
3579.68,0.01431
3566.18,0.01420
3552.67,0.01386
3539.17,0.01370
3525.67,0.01416
3512.17,0.01561
3498.67,0.01814
3485.17,0.02336
3471.67,0.05037
3458.17,0.04041
3444.67,0.03096
3431.17,0.03326
3417.67,0.05140
3404.16,0.04153
3390.66,0.03842
3377.16,0.04197
3363.66,0.04958
3350.16,0.06045
3336.66,0.07122
3323.16,0.07560
3309.66,0.07323
3296.16,0.06882
3282.66,0.06524
3269.15,0.06277
3255.65,0.06182
3242.15,0.06293
3228.65,0.06666
3215.15,0.07263
3201.65,0.07926
3188.15,0.08445
3174.65,0.08775
3161.15,0.09262
3147.65,0.10128
3134.15,0.11027
3120.64,0.11279
3107.14,0.10921
3093.64,0.10420
3080.14,0.09883
3066.64,0.09331
3053.14,0.08812
3039.64,0.08327
3026.14,0.07878
3012.64,0.07469
2999.14,0.07097
2985.64,0.06801
2972.13,0.06543
2958.63,0.06234
2945.13,0.05934
2931.63,0.05596
2918.13,0.05278
2904.63,0.05103
2891.13,0.04928
2877.63,0.04823
2864.13,0.04765
2850.63,0.04713
2837.12,0.04774
2823.62,0.04741
2810.12,0.04622
2796.62,0.04456
2783.12,0.04291
2769.62,0.04166
2756.12,0.04058
2742.62,0.03969
2729.12,0.03839
2715.62,0.03778
2702.12,0.03762
2688.61,0.03753
2675.11,0.03698
2661.61,0.03607
2648.11,0.03544
2634.61,0.03484
2621.11,0.03429
2607.61,0.03380
2594.11,0.03323
2580.61,0.03285
2567.11,0.03261
2553.61,0.03210
2540.1,0.03153
2526.6,0.03101
2513.1,0.03058
2499.6,0.03024
2486.1,0.02964
2472.6,0.02909
2459.1,0.02841
2445.6,0.02774
2432.1,0.02694
2418.6,0.02625
2405.1,0.02546
2391.59,0.02490
2378.09,0.02512
2364.59,0.02812
2351.09,0.02563
2337.59,0.02739
2324.09,0.02758
2310.59,0.02563
2297.09,0.02523
2283.59,0.02609
2270.09,0.02632
2256.58,0.02696
2243.08,0.02767
2229.58,0.02865
2216.08,0.02944
2202.58,0.03041
2189.08,0.03135
2175.58,0.03068
2162.08,0.03231
2148.58,0.02709
2135.08,0.02442
2121.58,0.02312
2108.07,0.02272
2094.57,0.02133
2081.07,0.02145
2067.57,0.02151
2054.07,0.02198
2040.57,0.02297
2027.07,0.02214
2013.57,0.02094
2000.07,0.01918
1986.57,0.01906
1973.07,0.01778
1959.56,0.01586
1946.06,0.01469
1932.56,0.01330
1919.06,0.01245
1905.56,0.01164
1892.06,0.01080
1878.56,0.01025
1865.06,0.00971
1851.56,0.00911
1838.06,0.00855
1824.55,0.00813
1811.05,0.00740
1797.55,0.00724
1784.05,0.00742
1770.55,0.00802
1757.05,0.00785
1743.55,0.00783
1730.05,0.00886
1716.55,0.01183
1703.05,0.01681
1689.55,0.02568
1676.04,0.04780
1662.54,0.08587
1649.04,0.12176
1635.54,0.13271
1622.04,0.14729
1608.54,0.13017
1595.04,0.12645
1581.54,0.15530
1568.04,0.16918
1554.54,0.19560
1541.04,0.21894
1527.53,0.22014
1514.03,0.19206
1500.53,0.15592
1487.03,0.13294
1473.53,0.15655
1460.03,0.17753
1446.53,0.19640
1433.03,0.24910
1419.53,0.23638
1406.03,0.21412
1392.52,0.19255
1379.02,0.17491
1365.52,0.17940
1352.02,0.18548
1338.52,0.18540
1325.02,0.18574
1311.52,0.18217
1298.02,0.17223
1284.52,0.15829
1271.02,0.15233
1257.52,0.14965
1244.01,0.14324
1230.51,0.13587
1217.01,0.12897
1203.51,0.12968
1190.01,0.13411
1176.51,0.13310
1163.01,0.12536
1149.51,0.11676
1136.01,0.11137
1122.51,0.10780
1109.01,0.11135
1095.5,0.10683
1082,0.10245
1068.5,0.09818
1055,0.09534
1041.5,0.10549
1028,0.13602
1014.5,0.13396
1001,0.11737
987.497,0.10649
973.996,0.09896
960.495,0.09237
946.994,0.08755
933.493,0.08305
919.992,0.08023
906.491,0.07865
892.99,0.07803
879.489,0.07866
865.989,0.07858
852.488,0.07771
838.987,0.07986
825.486,0.09945
811.985,0.22112
798.484,0.17261
784.983,0.13793
771.482,0.13972
757.981,0.13644
744.48,0.12355
730.979,0.13919
717.478,0.13824
703.977,0.13890
690.476,0.14163
676.975,0.14922
663.474,0.15320
649.974,0.15935
636.473,0.17138
622.972,0.18899
609.471,0.20467
599.827,0.19168